wavelength, flux, error 
380.000,  0.171,  0.009 
380.100,  0.406,  0.020 
380.200,  0.377,  0.019 
380.300,  0.491,  0.025 
380.400,  0.576,  0.029 
380.500,  0.297,  0.015 
380.600,  0.313,  0.016 
380.700,  0.052,  0.003 
380.800,  0.372,  0.019 
380.900,  0.394,  0.020 
381.000,  0.413,  0.021 
381.100,  0.340,  0.017 
381.200,  0.423,  0.021 
381.300,  0.283,  0.014 
381.400,  0.229,  0.011 
381.500,  0.099,  0.005 
381.600,  0.085,  0.004 
381.700,  0.215,  0.011 
381.800,  0.212,  0.011 
381.900,  0.195,  0.010 
382.000,  0.059,  0.003 
382.100,  0.130,  0.007 
382.200,  0.156,  0.008 
382.300,  0.214,  0.011 
382.400,  0.088,  0.004 
382.500,  0.050,  0.003 
382.600,  0.043,  0.002 
382.700,  0.084,  0.004 
382.800,  0.084,  0.004 
382.900,  0.106,  0.005 
383.000,  0.165,  0.008 
383.100,  0.179,  0.009 
383.200,  0.085,  0.004 
383.300,  0.152,  0.008 
383.400,  0.107,  0.005 
383.500,  0.141,  0.007 
383.600,  0.199,  0.010 
383.700,  0.134,  0.007 
383.800,  0.121,  0.006 
383.900,  0.127,  0.006 
384.000,  0.072,  0.004 
384.100,  0.104,  0.005 
384.200,  0.185,  0.009 
384.300,  0.209,  0.010 
384.400,  0.243,  0.012 
384.500,  0.242,  0.012 
384.600,  0.236,  0.012 
384.700,  0.250,  0.012 
384.800,  0.306,  0.015 
384.900,  0.210,  0.010 
385.000,  0.053,  0.003 
385.100,  0.186,  0.009 
385.200,  0.231,  0.012 
385.300,  0.213,  0.011 
385.400,  0.178,  0.009 
385.500,  0.154,  0.008 
385.600,  0.072,  0.004 
385.700,  0.190,  0.009 
385.800,  0.139,  0.007 
385.900,  0.121,  0.006 
386.000,  0.061,  0.003 
386.100,  0.074,  0.004 
386.200,  0.219,  0.011 
386.300,  0.210,  0.011 
386.400,  0.204,  0.010 
386.500,  0.161,  0.008 
386.600,  0.204,  0.010 
386.700,  0.179,  0.009 
386.800,  0.172,  0.009 
386.900,  0.196,  0.010 
387.000,  0.145,  0.007 
387.100,  0.159,  0.008 
387.200,  0.166,  0.008 
387.300,  0.150,  0.007 
387.400,  0.267,  0.013 
387.500,  0.244,  0.012 
387.600,  0.330,  0.016 
387.700,  0.203,  0.010 
387.800,  0.068,  0.003 
387.900,  0.108,  0.005 
388.000,  0.199,  0.010 
388.100,  0.271,  0.014 
388.200,  0.161,  0.008 
388.300,  0.124,  0.006 
388.400,  0.382,  0.019 
388.500,  0.228,  0.011 
388.600,  0.041,  0.002 
388.700,  0.111,  0.006 
388.800,  0.207,  0.010 
388.900,  0.248,  0.012 
389.000,  0.321,  0.016 
389.100,  0.397,  0.020 
389.200,  0.536,  0.027 
389.300,  0.367,  0.018 
389.400,  0.372,  0.019 
389.500,  0.259,  0.013 
389.600,  0.173,  0.009 
389.700,  0.478,  0.024 
389.800,  0.226,  0.011 
389.900,  0.312,  0.016 
390.000,  0.103,  0.005 
390.100,  0.409,  0.020 
390.200,  0.308,  0.015 
390.300,  0.166,  0.008 
390.400,  0.327,  0.016 
390.500,  0.286,  0.014 
390.600,  0.183,  0.009 
390.700,  0.220,  0.011 
390.800,  0.459,  0.023 
390.900,  0.529,  0.026 
391.000,  0.392,  0.020 
391.100,  0.410,  0.021 
391.200,  0.520,  0.026 
391.300,  0.522,  0.026 
391.400,  0.371,  0.019 
391.500,  0.579,  0.029 
391.600,  0.348,  0.017 
391.700,  0.388,  0.019 
391.800,  0.426,  0.021 
391.900,  0.185,  0.009 
392.000,  0.092,  0.005 
392.100,  0.166,  0.008 
392.200,  0.257,  0.013 
392.300,  0.122,  0.006 
392.400,  0.332,  0.017 
392.500,  0.334,  0.017 
392.600,  0.204,  0.010 
392.700,  0.252,  0.013 
392.800,  0.150,  0.008 
392.900,  0.175,  0.009 
393.000,  0.022,  0.001 
393.100,  0.149,  0.007 
393.200,  0.007,  0.001
393.300,  0.036,  0.002 
393.400,  0.050,  0.002 
393.500,  0.077,  0.004 
393.600,  0.121,  0.006 
393.700,  0.194,  0.010 
393.800,  0.174,  0.009 
393.900,  0.239,  0.012 
394.000,  0.307,  0.015 
394.100,  0.244,  0.012 
394.200,  0.301,  0.015 
394.300,  0.176,  0.009 
394.400,  0.135,  0.007 
394.500,  0.253,  0.013 
394.600,  0.507,  0.025 
394.700,  0.399,  0.020 
394.800,  0.323,  0.016 
394.900,  0.319,  0.016 
395.000,  0.385,  0.019 
395.100,  0.467,  0.023 
395.200,  0.494,  0.025 
395.300,  0.249,  0.012 
395.400,  0.633,  0.032 
395.500,  0.496,  0.025 
395.600,  0.368,  0.018 
395.700,  0.260,  0.013 
395.800,  0.366,  0.018 
395.900,  0.504,  0.025 
396.000,  0.386,  0.019 
396.100,  0.228,  0.011 
396.200,  0.108,  0.005 
396.300,  0.237,  0.012 
396.400,  0.219,  0.011 
396.500,  0.187,  0.009 
396.600,  0.127,  0.006 
396.700,  0.041,  0.002 
396.800,  0.084,  0.004 
396.900,  0.062,  0.003 
397.000,  0.087,  0.004 
397.100,  0.133,  0.007 
397.200,  0.159,  0.008 
397.300,  0.166,  0.008 
397.400,  0.282,  0.014 
397.500,  0.378,  0.019 
397.600,  0.424,  0.021 
397.700,  0.406,  0.020 
397.800,  0.446,  0.022 
397.900,  0.509,  0.025 
398.000,  0.599,  0.030 
398.100,  0.553,  0.028 
398.200,  0.302,  0.015 
398.300,  0.492,  0.025 
398.400,  0.429,  0.021 
398.500,  0.525,  0.026 
398.600,  0.570,  0.028 
398.700,  0.453,  0.023 
398.800,  0.751,  0.038 
398.900,  0.699,  0.035 
399.000,  0.375,  0.019 
399.100,  0.623,  0.031 
399.200,  0.608,  0.030 
399.300,  0.731,  0.037 
399.400,  0.488,  0.024 
399.500,  0.403,  0.020 
399.600,  0.659,  0.033 
399.700,  0.379,  0.019 
399.800,  0.519,  0.026 
399.900,  0.441,  0.022 
400.000,  0.714,  0.036 
400.100,  0.645,  0.032 
400.200,  0.663,  0.033 
400.300,  0.602,  0.030 
400.400,  0.607,  0.030 
400.500,  0.255,  0.013 
400.600,  0.431,  0.022 
400.700,  0.441,  0.022 
400.800,  0.831,  0.042 
400.900,  0.679,  0.034 
401.000,  0.513,  0.026 
401.100,  0.689,  0.034 
401.200,  0.493,  0.025 
401.300,  0.780,  0.039 
401.400,  0.482,  0.024 
401.500,  0.570,  0.028 
401.600,  0.670,  0.034 
401.700,  0.630,  0.032 
401.800,  0.579,  0.029 
401.900,  0.767,  0.038 
402.000,  0.569,  0.028 
402.100,  0.756,  0.038 
402.200,  0.425,  0.021 
402.300,  0.677,  0.034 
402.400,  0.557,  0.028 
402.500,  0.416,  0.021 
402.600,  0.599,  0.030 
402.700,  0.665,  0.033 
402.800,  0.693,  0.035 
402.900,  0.704,  0.035 
403.000,  0.322,  0.016 
403.100,  0.122,  0.006 
403.200,  0.390,  0.020 
403.300,  0.167,  0.008 
403.400,  0.268,  0.013 
403.500,  0.424,  0.021 
403.600,  0.308,  0.015 
403.700,  0.601,  0.030 
403.800,  0.697,  0.035 
403.900,  0.648,  0.032 
404.000,  0.714,  0.036 
404.100,  0.396,  0.020 
404.200,  0.541,  0.027 
404.300,  0.691,  0.035 
404.400,  0.323,  0.016 
404.500,  0.265,  0.013 
404.600,  0.089,  0.004 
404.700,  0.280,  0.014 
404.800,  0.530,  0.026 
404.900,  0.507,  0.025 
405.000,  0.637,  0.032 
405.100,  0.668,  0.033 
405.200,  0.553,  0.028 
405.300,  0.558,  0.028 
405.400,  0.658,  0.033 
405.500,  0.357,  0.018 
405.600,  0.742,  0.037 
405.700,  0.591,  0.030 
405.800,  0.383,  0.019 
405.900,  0.529,  0.026 
406.000,  0.604,  0.030 
406.100,  0.595,  0.030 
406.200,  0.444,  0.022 
406.300,  0.209,  0.010 
406.400,  0.162,  0.008 
406.500,  0.485,  0.024 
406.600,  0.540,  0.027 
406.700,  0.372,  0.019 
406.800,  0.504,  0.025 
406.900,  0.589,  0.029 
407.000,  0.464,  0.023 
407.100,  0.271,  0.014 
407.200,  0.154,  0.008 
407.300,  0.567,  0.028 
407.400,  0.583,  0.029 
407.500,  0.447,  0.022 
407.600,  0.524,  0.026 
407.700,  0.310,  0.015 
407.800,  0.360,  0.018 
407.900,  0.582,  0.029 
408.000,  0.502,  0.025 
408.100,  0.751,  0.038 
408.200,  0.684,  0.034 
408.300,  0.508,  0.025 
408.400,  0.437,  0.022 
408.500,  0.464,  0.023 
408.600,  0.659,  0.033 
408.700,  0.681,  0.034 
408.800,  0.778,  0.039 
408.900,  0.743,  0.037 
409.000,  0.626,  0.031 
409.100,  0.699,  0.035 
409.200,  0.688,  0.034 
409.300,  0.700,  0.035 
409.400,  0.720,  0.036 
409.500,  0.567,  0.028 
409.600,  0.446,  0.022 
409.700,  0.572,  0.029 
409.800,  0.614,  0.031 
409.900,  0.679,  0.034 
410.000,  0.560,  0.028 
410.100,  0.464,  0.023 
410.200,  0.405,  0.020 
410.300,  0.528,  0.026 
410.400,  0.549,  0.027 
410.500,  0.445,  0.022 
410.600,  0.692,  0.035 
410.700,  0.621,  0.031 
410.800,  0.565,  0.028 
410.900,  0.624,  0.031 
411.000,  0.575,  0.029 
411.100,  0.592,  0.030 
411.200,  0.492,  0.025 
411.300,  0.526,  0.026 
411.400,  0.665,  0.033 
411.500,  0.506,  0.025 
411.600,  0.596,  0.030 
411.700,  0.697,  0.035 
411.800,  0.560,  0.028 
411.900,  0.383,  0.019 
412.000,  0.543,  0.027 
412.100,  0.592,  0.030 
412.200,  0.656,  0.033 
412.300,  0.524,  0.026 
412.400,  0.591,  0.030 
412.500,  0.768,  0.038 
412.600,  0.516,  0.026 
412.700,  0.608,  0.030 
412.800,  0.252,  0.013 
412.900,  0.553,  0.028 
413.000,  0.598,  0.030 
413.100,  0.516,  0.026 
413.200,  0.268,  0.013 
413.300,  0.434,  0.022 
413.400,  0.390,  0.020 
413.500,  0.463,  0.023 
413.600,  0.644,  0.032 
413.700,  0.382,  0.019 
413.800,  0.556,  0.028 
413.900,  0.590,  0.030 
414.000,  0.504,  0.025 
414.100,  0.616,  0.031 
414.200,  0.387,  0.019 
414.300,  0.245,  0.012 
414.400,  0.140,  0.007 
414.500,  0.454,  0.023 
414.600,  0.499,  0.025 
414.700,  0.639,  0.032 
414.800,  0.441,  0.022 
414.900,  0.485,  0.024 
415.000,  0.374,  0.019 
415.100,  0.583,  0.029 
415.200,  0.446,  0.022 
415.300,  0.624,  0.031 
415.400,  0.305,  0.015 
415.500,  0.455,  0.023 
415.600,  0.553,  0.028 
415.700,  0.452,  0.023 
415.800,  0.384,  0.019 
415.900,  0.593,  0.030 
416.000,  0.538,  0.027 
416.100,  0.612,  0.031 
416.200,  0.546,  0.027 
416.300,  0.581,  0.029 
416.400,  0.520,  0.026 
416.500,  0.462,  0.023 
416.600,  0.614,  0.031 
416.700,  0.407,  0.020 
416.800,  0.473,  0.024 
416.900,  0.611,  0.031 
417.000,  0.540,  0.027 
417.100,  0.558,  0.028 
417.200,  0.351,  0.018 
417.300,  0.403,  0.020 
417.400,  0.471,  0.024 
417.500,  0.401,  0.020 
417.600,  0.365,  0.018 
417.700,  0.484,  0.024 
417.800,  0.437,  0.022 
417.900,  0.566,  0.028 
418.000,  0.564,  0.028 
418.100,  0.492,  0.025 
418.200,  0.422,  0.021 
418.300,  0.502,  0.025 
418.400,  0.683,  0.034 
418.500,  0.518,  0.026 
418.600,  0.482,  0.024 
418.700,  0.301,  0.015 
418.800,  0.393,  0.020 
418.900,  0.518,  0.026 
419.000,  0.515,  0.026 
419.100,  0.443,  0.022 
419.200,  0.438,  0.022 
419.300,  0.649,  0.032 
419.400,  0.561,  0.028 
419.500,  0.421,  0.021 
419.600,  0.364,  0.018 
419.700,  0.399,  0.020 
419.800,  0.362,  0.018 
419.900,  0.286,  0.014 
420.000,  0.393,  0.020 
420.100,  0.418,  0.021 
420.200,  0.185,  0.009 
420.300,  0.427,  0.021 
420.400,  0.504,  0.025 
420.500,  0.500,  0.025 
420.600,  0.606,  0.030 
420.700,  0.489,  0.024 
420.800,  0.786,  0.039 
420.900,  0.678,  0.034 
421.000,  0.376,  0.019 
421.100,  0.586,  0.029 
421.200,  0.549,  0.027 
421.300,  0.453,  0.023 
421.400,  0.481,  0.024 
421.500,  0.476,  0.024 
421.600,  0.221,  0.011 
421.700,  0.536,  0.027 
421.800,  0.528,  0.026 
421.900,  0.571,  0.029 
422.000,  0.625,  0.031 
422.100,  0.728,  0.036 
422.200,  0.471,  0.024 
422.300,  0.521,  0.026 
422.400,  0.381,  0.019 
422.500,  0.317,  0.016 
422.600,  0.153,  0.008 
422.700,  0.057,  0.003 
422.800,  0.257,  0.013 
422.900,  0.460,  0.023 
423.000,  0.567,  0.028 
423.100,  0.669,  0.033 
423.200,  0.551,  0.028 
423.300,  0.531,  0.027 
423.400,  0.515,  0.026 
423.500,  0.614,  0.031 
423.600,  0.312,  0.016 
423.700,  0.526,  0.026 
423.800,  0.633,  0.032 
423.900,  0.502,  0.025 
424.000,  0.475,  0.024 
424.100,  0.587,  0.029 
424.200,  0.470,  0.023 
424.300,  0.488,  0.024 
424.400,  0.670,  0.033 
424.500,  0.583,  0.029 
424.600,  0.734,  0.037 
424.700,  0.470,  0.024 
424.800,  0.500,  0.025 
424.900,  0.541,  0.027 
425.000,  0.353,  0.018 
425.100,  0.247,  0.012 
425.200,  0.553,  0.028 
425.300,  0.596,  0.030 
425.400,  0.240,  0.012 
425.500,  0.315,  0.016 
425.600,  0.500,  0.025 
425.700,  0.744,  0.037 
425.800,  0.587,  0.029 
425.900,  0.540,  0.027 
426.000,  0.336,  0.017 
426.100,  0.366,  0.018 
426.200,  0.511,  0.026 
426.300,  0.541,  0.027 
426.400,  0.579,  0.029 
426.500,  0.639,  0.032 
426.600,  0.621,  0.031 
426.700,  0.593,  0.030 
426.800,  0.467,  0.023 
426.900,  0.445,  0.022 
427.000,  0.352,  0.018 
427.100,  0.264,  0.013 
427.200,  0.192,  0.010 
427.300,  0.302,  0.015 
427.400,  0.352,  0.018 
427.500,  0.162,  0.008 
427.600,  0.512,  0.026 
427.700,  0.534,  0.027 
427.800,  0.676,  0.034 
427.900,  0.618,  0.031 
428.000,  0.365,  0.018 
428.100,  0.395,  0.020 
428.200,  0.482,  0.024 
428.300,  0.428,  0.021 
428.400,  0.596,  0.030 
428.500,  0.425,  0.021 
428.600,  0.369,  0.018 
428.700,  0.516,  0.026 
428.800,  0.580,  0.029 
428.900,  0.314,  0.016 
429.000,  0.230,  0.011 
429.100,  0.422,  0.021 
429.200,  0.434,  0.022 
429.300,  0.612,  0.031 
429.400,  0.386,  0.019 
429.500,  0.440,  0.022 
429.600,  0.572,  0.029 
429.700,  0.361,  0.018 
429.800,  0.427,  0.021 
429.900,  0.252,  0.013 
430.000,  0.333,  0.017 
430.100,  0.284,  0.014 
430.200,  0.304,  0.015 
430.300,  0.285,  0.014 
430.400,  0.394,  0.020 
430.500,  0.365,  0.018 
430.600,  0.261,  0.013 
430.700,  0.258,  0.013 
430.800,  0.077,  0.004 
430.900,  0.216,  0.011 
431.000,  0.295,  0.015 
431.100,  0.329,  0.016 
431.200,  0.360,  0.018 
431.300,  0.400,  0.020 
431.400,  0.526,  0.026 
431.500,  0.417,  0.021 
431.600,  0.859,  0.043 
431.700,  0.790,  0.040 
431.800,  0.854,  0.043 
431.900,  0.607,  0.030 
432.000,  0.713,  0.036 
432.100,  0.549,  0.027 
432.200,  0.717,  0.036 
432.300,  0.445,  0.022 
432.400,  0.308,  0.015 
432.500,  0.265,  0.013 
432.600,  0.140,  0.007 
432.700,  0.370,  0.019 
432.800,  0.636,  0.032 
432.900,  0.695,  0.035 
433.000,  0.570,  0.029 
433.100,  0.615,  0.031 
433.200,  0.791,  0.040 
433.300,  0.602,  0.030 
433.400,  0.747,  0.037 
433.500,  0.716,  0.036 
433.600,  0.919,  0.046 
433.700,  0.563,  0.028 
433.800,  0.514,  0.026 
433.900,  0.507,  0.025 
434.000,  0.493,  0.025 
434.100,  0.516,  0.026 
434.200,  0.722,  0.036 
434.300,  0.709,  0.035 
434.400,  0.526,  0.026 
434.500,  0.630,  0.032 
434.600,  0.725,  0.036 
434.700,  0.626,  0.031 
434.800,  0.539,  0.027 
434.900,  0.676,  0.034 
435.000,  0.644,  0.032 
435.100,  0.538,  0.027 
435.200,  0.342,  0.017 
435.300,  0.527,  0.026 
435.400,  0.678,  0.034 
435.500,  0.615,  0.031 
435.600,  0.586,  0.029 
435.700,  0.707,  0.035 
435.800,  0.757,  0.038 
435.900,  0.512,  0.026 
436.000,  0.530,  0.027 
436.100,  0.680,  0.034 
436.200,  0.756,  0.038 
436.300,  0.566,  0.028 
436.400,  0.676,  0.034 
436.500,  0.789,  0.039 
436.600,  0.732,  0.037 
436.700,  0.641,  0.032 
436.800,  0.432,  0.022 
436.900,  0.813,  0.041 
437.000,  0.609,  0.030 
437.100,  0.509,  0.025 
437.200,  0.716,  0.036 
437.300,  0.679,  0.034 
437.400,  0.523,  0.026 
437.500,  0.644,  0.032 
437.600,  0.414,  0.021 
437.700,  0.530,  0.027 
437.800,  0.659,  0.033 
437.900,  0.615,  0.031 
438.000,  0.672,  0.034 
438.100,  0.558,  0.028 
438.200,  0.619,  0.031 
438.300,  0.164,  0.008 
438.400,  0.192,  0.010 
438.500,  0.289,  0.014 
438.600,  0.655,  0.033 
438.700,  0.564,  0.028 
438.800,  0.541,  0.027 
438.900,  0.698,  0.035 
439.000,  0.476,  0.024 
439.100,  0.599,  0.030 
439.200,  0.563,  0.028 
439.300,  0.660,  0.033 
439.400,  0.571,  0.029 
439.500,  0.484,  0.024 
439.600,  0.639,  0.032 
439.700,  0.622,  0.031 
439.800,  0.659,  0.033 
439.900,  0.687,  0.034 
440.000,  0.480,  0.024 
440.100,  0.515,  0.026 
440.200,  0.736,  0.037 
440.300,  0.673,  0.034 
440.400,  0.416,  0.021 
440.500,  0.248,  0.012 
440.600,  0.620,  0.031 
440.700,  0.662,  0.033 
440.800,  0.395,  0.020 
440.900,  0.662,  0.033 
441.000,  0.691,  0.035 
441.100,  0.741,  0.037 
441.200,  0.702,  0.035 
441.300,  0.804,  0.040 
441.400,  0.571,  0.029 
441.500,  0.333,  0.017 
441.600,  0.587,  0.029 
441.700,  0.555,  0.028 
441.800,  0.701,  0.035 
441.900,  0.756,  0.038 
442.000,  0.707,  0.035 
442.100,  0.706,  0.035 
442.200,  0.545,  0.027 
442.300,  0.627,  0.031 
442.400,  0.623,  0.031 
442.500,  0.668,  0.033 
442.600,  0.547,  0.027 
442.700,  0.538,  0.027 
442.800,  0.739,  0.037 
442.900,  0.778,  0.039 
443.000,  0.533,  0.027 
443.100,  0.644,  0.032 
443.200,  0.737,  0.037 
443.300,  0.637,  0.032 
443.400,  0.682,  0.034 
443.500,  0.436,  0.022 
443.600,  0.493,  0.025 
443.700,  0.838,  0.042 
443.800,  0.644,  0.032 
443.900,  0.856,  0.043 
444.000,  0.656,  0.033 
444.100,  0.691,  0.035 
444.200,  0.501,  0.025 
444.300,  0.595,  0.030 
444.400,  0.589,  0.029 
444.500,  0.854,  0.043 
444.600,  0.831,  0.042 
444.700,  0.725,  0.036 
444.800,  0.699,  0.035 
444.900,  0.727,  0.036 
445.000,  0.632,  0.032 
445.100,  0.763,  0.038 
445.200,  0.802,  0.040 
445.300,  0.616,  0.031 
445.400,  0.633,  0.032 
445.500,  0.328,  0.016 
445.600,  0.526,  0.026 
445.700,  0.603,  0.030 
445.800,  0.587,  0.029 
445.900,  0.495,  0.025 
446.000,  0.684,  0.034 
446.100,  0.585,  0.029 
446.200,  0.312,  0.016 
446.300,  0.752,  0.038 
446.400,  0.809,  0.040 
446.500,  0.606,  0.030 
446.600,  0.702,  0.035 
446.700,  0.615,  0.031 
446.800,  0.733,  0.037 
446.900,  0.638,  0.032 
447.000,  0.575,  0.029 
447.100,  0.694,  0.035 
447.200,  0.765,  0.038 
447.300,  0.703,  0.035 
447.400,  0.706,  0.035 
447.500,  0.781,  0.039 
447.600,  0.633,  0.032 
447.700,  0.867,  0.043 
447.800,  0.865,  0.043 
447.900,  0.889,  0.044 
448.000,  0.613,  0.031 
448.100,  0.755,  0.038 
448.200,  0.571,  0.029 
448.300,  0.667,  0.033 
448.400,  0.722,  0.036 
448.500,  0.811,  0.041 
448.600,  0.789,  0.039 
448.700,  0.737,  0.037 
448.800,  0.739,  0.037 
448.900,  0.722,  0.036 
449.000,  0.620,  0.031 
449.100,  0.741,  0.037 
449.200,  0.891,  0.045 
449.300,  0.773,  0.039 
449.400,  0.714,  0.036 
449.500,  0.608,  0.030 
449.600,  0.672,  0.034 
449.700,  0.705,  0.035 
449.800,  0.816,  0.041 
449.900,  0.693,  0.035 
450.000,  0.871,  0.044 
450.100,  0.800,  0.040 
450.200,  0.735,  0.037 
450.300,  0.917,  0.046 
450.400,  0.944,  0.047 
450.500,  0.852,  0.043 
450.600,  0.877,  0.044 
450.700,  0.812,  0.041 
450.800,  0.895,  0.045 
450.900,  0.853,  0.043 
451.000,  0.946,  0.047 
451.100,  0.799,  0.040 
451.200,  0.821,  0.041 
451.300,  0.771,  0.039 
451.400,  0.838,  0.042 
451.500,  0.746,  0.037 
451.600,  0.797,  0.040 
451.700,  0.826,  0.041 
451.800,  0.533,  0.027 
451.900,  0.783,  0.039 
452.000,  0.723,  0.036 
452.100,  0.831,  0.042 
452.200,  0.877,  0.044 
452.300,  0.669,  0.033 
452.400,  0.905,  0.045 
452.500,  0.616,  0.031 
452.600,  0.674,  0.034 
452.700,  0.631,  0.032 
452.800,  0.718,  0.036 
452.900,  0.568,  0.028 
453.000,  0.812,  0.041 
453.100,  0.490,  0.024 
453.200,  0.836,  0.042 
453.300,  0.662,  0.033 
453.400,  0.723,  0.036 
453.500,  0.650,  0.033 
453.600,  0.449,  0.022 
453.700,  0.923,  0.046 
453.800,  0.802,  0.040 
453.900,  0.855,  0.043 
454.000,  0.848,  0.042 
454.100,  0.577,  0.029 
454.200,  0.760,  0.038 
454.300,  0.881,  0.044 
454.400,  0.802,  0.040 
454.500,  0.580,  0.029 
454.600,  0.695,  0.035 
454.700,  0.763,  0.038 
454.800,  0.767,  0.038 
454.900,  0.741,  0.037 
455.000,  0.685,  0.034 
455.100,  0.964,  0.048 
455.200,  0.759,  0.038 
455.300,  0.897,  0.045 
455.400,  0.706,  0.035 
455.500,  0.715,  0.036 
455.600,  0.704,  0.035 
455.700,  0.902,  0.045 
455.800,  0.876,  0.044 
455.900,  0.924,  0.046 
456.000,  0.806,  0.040 
456.100,  0.837,  0.042 
456.200,  0.952,  0.048 
456.300,  0.867,  0.043 
456.400,  0.793,  0.040 
456.500,  0.733,  0.037 
456.600,  0.768,  0.038 
456.700,  0.864,  0.043 
456.800,  0.864,  0.043 
456.900,  0.777,  0.039 
457.000,  0.790,  0.039 
457.100,  0.698,  0.035 
457.200,  0.610,  0.031 
457.300,  0.828,  0.041 
457.400,  0.940,  0.047 
457.500,  0.831,  0.042 
457.600,  0.809,  0.040 
457.700,  0.801,  0.040 
457.800,  0.785,  0.039 
457.900,  0.688,  0.034 
458.000,  0.584,  0.029 
458.100,  0.649,  0.032 
458.200,  0.837,  0.042 
458.300,  0.850,  0.042 
458.400,  0.797,  0.040 
458.500,  0.783,  0.039 
458.600,  0.513,  0.026 
458.700,  0.842,  0.042 
458.800,  0.801,  0.040 
458.900,  0.809,  0.040 
459.000,  0.795,  0.040 
459.100,  0.781,  0.039 
459.200,  0.754,  0.038 
459.300,  0.769,  0.038 
459.400,  0.762,  0.038 
459.500,  0.713,  0.036 
459.600,  0.731,  0.037 
459.700,  0.788,  0.039 
459.800,  0.706,  0.035 
459.900,  0.873,  0.044 
460.000,  0.849,  0.042 
460.100,  0.598,  0.030 
460.200,  0.684,  0.034 
460.300,  0.661,  0.033 
460.400,  0.837,  0.042 
460.500,  0.700,  0.035 
460.600,  0.818,  0.041 
460.700,  0.837,  0.042 
460.800,  0.828,  0.041 
460.900,  0.867,  0.043 
461.000,  0.914,  0.046 
461.100,  0.627,  0.031 
461.200,  0.899,  0.045 
461.300,  0.702,  0.035 
461.400,  0.716,  0.036 
461.500,  0.926,  0.046 
461.600,  0.695,  0.035 
461.700,  0.787,  0.039 
461.800,  0.820,  0.041 
461.900,  0.724,  0.036 
462.000,  0.779,  0.039 
462.100,  0.908,  0.045 
462.200,  0.719,  0.036 
462.300,  0.796,  0.040 
462.400,  0.913,  0.046 
462.500,  0.820,  0.041 
462.600,  0.704,  0.035 
462.700,  0.777,  0.039 
462.800,  0.917,  0.046 
462.900,  0.778,  0.039 
463.000,  0.880,  0.044 
463.100,  0.918,  0.046 
463.200,  0.905,  0.045 
463.300,  0.766,  0.038 
463.400,  0.790,  0.039 
463.500,  0.893,  0.045 
463.600,  0.833,  0.042 
463.700,  0.808,  0.040 
463.800,  0.712,  0.036 
463.900,  0.827,  0.041 
464.000,  0.690,  0.034 
464.100,  0.863,  0.043 
464.200,  0.971,  0.049 
464.300,  0.817,  0.041 
464.400,  0.889,  0.044 
464.500,  0.842,  0.042 
464.600,  0.691,  0.035 
464.700,  0.766,  0.038 
464.800,  0.884,  0.044 
464.900,  0.679,  0.034 
465.000,  0.800,  0.040 
465.100,  0.830,  0.042 
465.200,  0.717,  0.036 
465.300,  0.862,  0.043 
465.400,  0.848,  0.042 
465.500,  0.786,  0.039 
465.600,  0.749,  0.037 
465.700,  0.783,  0.039 
465.800,  0.933,  0.047 
465.900,  0.878,  0.044 
466.000,  0.931,  0.047 
466.100,  0.855,  0.043 
466.200,  0.873,  0.044 
466.300,  0.782,  0.039 
466.400,  0.900,  0.045 
466.500,  0.786,  0.039 
466.600,  0.807,  0.040 
466.700,  0.681,  0.034 
466.800,  0.532,  0.027 
466.900,  0.715,  0.036 
467.000,  0.819,  0.041 
467.100,  0.926,  0.046 
467.200,  0.872,  0.044 
467.300,  0.647,  0.032 
467.400,  0.989,  0.049 
467.500,  0.626,  0.031 
467.600,  0.835,  0.042 
467.700,  0.866,  0.043 
467.800,  0.819,  0.041 
467.900,  0.728,  0.036 
468.000,  0.764,  0.038 
468.100,  0.852,  0.043 
468.200,  0.714,  0.036 
468.300,  0.944,  0.047 
468.400,  0.925,  0.046 
468.500,  0.699,  0.035 
468.600,  0.812,  0.041 
468.700,  0.800,  0.040 
468.800,  0.831,  0.042 
468.900,  0.850,  0.043 
469.000,  0.819,  0.041 
469.100,  0.662,  0.033 
469.200,  0.901,  0.045 
469.300,  0.896,  0.045 
469.400,  0.838,  0.042 
469.500,  0.834,  0.042 
469.600,  0.908,  0.045 
469.700,  0.805,  0.040 
469.800,  0.843,  0.042 
469.900,  0.715,  0.036 
470.000,  0.863,  0.043 
470.100,  0.720,  0.036 
470.200,  0.786,  0.039 
470.300,  0.610,  0.031 
470.400,  0.840,  0.042 
470.500,  0.839,  0.042 
470.600,  0.799,  0.040 
470.700,  0.685,  0.034 
470.800,  0.821,  0.041 
470.900,  0.793,  0.040 
471.000,  0.668,  0.033 
471.100,  0.852,  0.043 
471.200,  0.835,  0.042 
471.300,  0.820,  0.041 
471.400,  0.716,  0.036 
471.500,  0.865,  0.043 
471.600,  0.797,  0.040 
471.700,  0.918,  0.046 
471.800,  0.826,  0.041 
471.900,  0.891,  0.045 
472.000,  0.961,  0.048 
472.100,  0.849,  0.042 
472.200,  0.823,  0.041 
472.300,  0.767,  0.038 
472.400,  0.806,  0.040 
472.500,  0.902,  0.045 
472.600,  0.915,  0.046 
472.700,  0.697,  0.035 
472.800,  0.716,  0.036 
472.900,  0.764,  0.038 
473.000,  0.773,  0.039 
473.100,  0.825,  0.041 
473.200,  0.701,  0.035 
473.300,  0.835,  0.042 
473.400,  0.797,  0.040 
473.500,  0.870,  0.044 
473.600,  0.845,  0.042 
473.700,  0.645,  0.032 
473.800,  0.801,  0.040 
473.900,  0.787,  0.039 
474.000,  0.779,  0.039 
474.100,  0.864,  0.043 
474.200,  0.770,  0.039 
474.300,  0.793,  0.040 
474.400,  0.877,  0.044 
474.500,  0.779,  0.039 
474.600,  0.784,  0.039 
474.700,  0.913,  0.046 
474.800,  0.837,  0.042 
474.900,  0.921,  0.046 
475.000,  0.833,  0.042 
475.100,  0.873,  0.044 
475.200,  0.806,  0.040 
475.300,  0.890,  0.045 
475.400,  0.764,  0.038 
475.500,  0.858,  0.043 
475.600,  0.788,  0.039 
475.700,  0.840,  0.042 
475.800,  0.761,  0.038 
475.900,  0.826,  0.041 
476.000,  0.874,  0.044 
476.100,  0.823,  0.041 
476.200,  0.702,  0.035 
476.300,  0.814,  0.041 
476.400,  0.715,  0.036 
476.500,  0.832,  0.042 
476.600,  0.720,  0.036 
476.700,  0.777,  0.039 
476.800,  0.780,  0.039 
476.900,  0.798,  0.040 
477.000,  0.790,  0.040 
477.100,  0.843,  0.042 
477.200,  0.776,  0.039 
477.300,  0.745,  0.037 
477.400,  0.858,  0.043 
477.500,  0.956,  0.048 
477.600,  0.789,  0.039 
477.700,  0.936,  0.047 
477.800,  0.832,  0.042 
477.900,  0.799,  0.040 
478.000,  0.845,  0.042 
478.100,  0.861,  0.043 
478.200,  0.761,  0.038 
478.300,  0.719,  0.036 
478.400,  0.861,  0.043 
478.500,  0.849,  0.042 
478.600,  0.752,  0.038 
478.700,  0.725,  0.036 
478.800,  0.865,  0.043 
478.900,  0.650,  0.033 
479.000,  0.771,  0.039 
479.100,  0.826,  0.041 
479.200,  0.774,  0.039 
479.300,  0.820,  0.041 
479.400,  0.915,  0.046 
479.500,  0.943,  0.047 
479.600,  0.867,  0.043 
479.700,  0.869,  0.043 
479.800,  0.792,  0.040 
479.900,  0.839,  0.042 
480.000,  0.806,  0.040 
480.100,  0.792,  0.040 
480.200,  0.807,  0.040 
480.300,  0.886,  0.044 
480.400,  0.913,  0.046 
480.500,  0.750,  0.038 
480.600,  0.846,  0.042 
480.700,  0.818,  0.041 
480.800,  0.833,  0.042 
480.900,  0.771,  0.039 
481.000,  0.923,  0.046 
481.100,  0.788,  0.039 
481.200,  0.818,  0.041 
481.300,  0.810,  0.041 
481.400,  0.871,  0.044 
481.500,  0.840,  0.042 
481.600,  0.865,  0.043 
481.700,  0.915,  0.046 
481.800,  0.823,  0.041 
481.900,  0.911,  0.046 
482.000,  0.820,  0.041 
482.100,  0.846,  0.042 
482.200,  0.878,  0.044 
482.300,  0.767,  0.038 
482.400,  0.725,  0.036 
482.500,  0.884,  0.044 
482.600,  0.865,  0.043 
482.700,  0.837,  0.042 
482.800,  0.903,  0.045 
482.900,  0.805,  0.040 
483.000,  0.978,  0.049 
483.100,  0.807,  0.040 
483.200,  0.798,  0.040 
483.300,  0.804,  0.040 
483.400,  0.913,  0.046 
483.500,  0.848,  0.042 
483.600,  0.725,  0.036 
483.700,  0.887,  0.044 
483.800,  0.729,  0.036 
483.900,  0.739,  0.037 
484.000,  0.539,  0.027 
484.100,  0.766,  0.038 
484.200,  0.816,  0.041 
484.300,  0.728,  0.036 
484.400,  0.723,  0.036 
484.500,  0.906,  0.045 
484.600,  0.810,  0.041 
484.700,  0.824,  0.041 
484.800,  0.893,  0.045 
484.900,  0.829,  0.041 
485.000,  0.859,  0.043 
485.100,  0.872,  0.044 
485.200,  0.828,  0.041 
485.300,  0.844,  0.042 
485.400,  0.885,  0.044 
485.500,  0.759,  0.038 
485.600,  0.789,  0.039 
485.700,  0.884,  0.044 
485.800,  0.907,  0.045 
485.900,  0.837,  0.042 
486.000,  0.701,  0.035 
486.100,  0.578,  0.029 
486.200,  0.711,  0.036 
486.300,  0.880,  0.044 
486.400,  0.667,  0.033 
486.500,  0.788,  0.039 
486.600,  0.805,  0.040 
486.700,  0.906,  0.045 
486.800,  0.741,  0.037 
486.900,  0.863,  0.043 
487.000,  0.831,  0.042 
487.100,  0.493,  0.025 
487.200,  0.549,  0.027 
487.300,  0.792,  0.040 
487.400,  0.848,  0.042 
487.500,  0.816,  0.041 
487.600,  0.741,  0.037 
487.700,  0.865,  0.043 
487.800,  0.540,  0.027 
487.900,  0.858,  0.043 
488.000,  0.882,  0.044 
488.100,  0.844,  0.042 
488.200,  0.677,  0.034 
488.300,  0.932,  0.047 
488.400,  0.876,  0.044 
488.500,  0.786,  0.039 
488.600,  0.732,  0.037 
488.700,  0.668,  0.033 
488.800,  0.764,  0.038 
488.900,  0.617,  0.031 
489.000,  0.820,  0.041 
489.100,  0.369,  0.018 
489.200,  0.701,  0.035 
489.300,  0.813,  0.041 
489.400,  0.946,  0.047 
489.500,  0.938,  0.047 
489.600,  0.870,  0.044 
489.700,  0.916,  0.046 
489.800,  0.977,  0.049 
489.900,  0.899,  0.045 
490.000,  0.792,  0.040 
490.100,  0.841,  0.042 
490.200,  0.835,  0.042 
490.300,  0.729,  0.036 
490.400,  0.786,  0.039 
490.500,  0.912,  0.046 
490.600,  0.941,  0.047 
490.700,  0.906,  0.045 
490.800,  0.776,  0.039 
490.900,  0.862,  0.043 
491.000,  0.712,  0.036 
491.100,  0.844,  0.042 
491.200,  0.744,  0.037 
491.300,  0.914,  0.046 
491.400,  0.797,  0.040 
491.500,  0.802,  0.040 
491.600,  0.915,  0.046 
491.700,  0.804,  0.040 
491.800,  0.785,  0.039 
491.900,  0.544,  0.027 
492.000,  0.553,  0.028 
492.100,  0.629,  0.031 
492.200,  0.744,  0.037 
492.300,  0.940,  0.047 
492.400,  0.847,  0.042 
492.500,  0.655,  0.033 
492.600,  0.871,  0.044 
492.700,  0.826,  0.041 
492.800,  0.850,  0.042 
492.900,  0.945,  0.047 
493.000,  0.858,  0.043 
493.100,  0.932,  0.047 
493.200,  0.908,  0.045 
493.300,  0.772,  0.039 
493.400,  0.673,  0.034 
493.500,  0.847,  0.042 
493.600,  0.734,  0.037 
493.700,  0.846,  0.042 
493.800,  0.708,  0.035 
493.900,  0.549,  0.027 
494.000,  0.581,  0.029 
494.100,  0.859,  0.043 
494.200,  0.748,  0.037 
494.300,  0.845,  0.042 
494.400,  0.917,  0.046 
494.500,  0.873,  0.044 
494.600,  0.760,  0.038 
494.700,  0.950,  0.048 
494.800,  0.855,  0.043 
494.900,  0.864,  0.043 
495.000,  0.812,  0.041 
495.100,  0.974,  0.049 
495.200,  0.962,  0.048 
495.300,  0.838,  0.042 
495.400,  0.920,  0.046 
495.500,  0.691,  0.035 
495.600,  0.847,  0.042 
495.700,  0.518,  0.026 
495.800,  0.534,  0.027 
495.900,  0.891,  0.045 
496.000,  0.890,  0.045 
496.100,  0.925,  0.046 
496.200,  0.816,  0.041 
496.300,  0.841,  0.042 
496.400,  0.849,  0.042 
496.500,  0.699,  0.035 
496.600,  0.734,  0.037 
496.700,  0.786,  0.039 
496.800,  0.710,  0.036 
496.900,  0.817,  0.041 
497.000,  0.781,  0.039 
497.100,  0.821,  0.041 
497.200,  0.890,  0.045 
497.300,  0.748,  0.037 
497.400,  0.832,  0.042 
497.500,  0.884,  0.044 
497.600,  0.826,  0.041 
497.700,  0.849,  0.042 
497.800,  0.716,  0.036 
497.900,  0.641,  0.032 
498.000,  0.692,  0.035 
498.100,  0.700,  0.035 
498.200,  0.490,  0.025 
498.300,  0.595,  0.030 
498.400,  0.614,  0.031 
498.500,  0.733,  0.037 
498.600,  0.673,  0.034 
498.700,  0.881,  0.044 
498.800,  0.789,  0.039 
498.900,  0.771,  0.039 
499.000,  0.815,  0.041 
499.100,  0.662,  0.033 
499.200,  0.838,  0.042 
499.300,  0.790,  0.039 
499.400,  0.480,  0.024 
499.500,  0.774,  0.039 
499.600,  0.833,  0.042 
499.700,  0.794,  0.040 
499.800,  0.820,  0.041 
499.900,  0.733,  0.037 
